    Time      Ur        Uinf      Ct_adm    a        Yaw(deg)  Thrust     Power  
    0.000     5.265     5.265     0.507     0.149     0.000  107084.8   563818.7
    0.500     5.302     6.230     0.507     0.149     0.000  108485.6   575159.8
    1.000     5.336     6.270     0.515     0.152     0.000  112151.9   598439.2
    1.500     5.366     6.325     0.515     0.152     0.000  113324.9   608100.6
    2.000     5.393     6.357     0.522     0.154     0.000  116786.1   629853.9
    2.500     5.416     6.404     0.522     0.154     0.000  117683.9   637375.7
    3.000     5.436     6.428     0.529     0.157     0.000  120901.4   657227.4
    3.500     5.452     6.467     0.529     0.157     0.000  121517.3   662500.2
    4.000     5.465     6.483     0.537     0.160     0.000  124488.1   680382.7
    4.500     5.475     6.515     0.537     0.160     0.000  124842.8   683538.9
    5.000     5.483     6.525     0.544     0.162     0.000  127576.2   699516.2
    5.500     5.488     6.551     0.544     0.162     0.000  127698.8   700767.2
    6.000     5.491     6.554     0.544     0.162     0.000  127643.8   700851.4
    6.500     5.492     6.555     0.544     0.162     0.000  127634.4   701001.0
    7.000     5.492     6.555     0.543     0.162     0.000  127483.3   700165.1
    7.500     5.490     6.553     0.543     0.162     0.000  127332.5   699106.6
    8.000     5.487     6.548     0.543     0.162     0.000  127040.0   697006.9
    8.500     5.480     6.540     0.543     0.162     0.000  126714.3   694431.3
    9.000     5.471     6.529     0.543     0.162     0.000  126257.8   690802.6
    9.500     5.459     6.515     0.543     0.162     0.000  125712.1   686319.5
   10.000     5.444     6.497     0.543     0.162     0.000  125107.7   681121.0
   10.500     5.426     6.475     0.543     0.162     0.000  124304.4   674427.6
   11.000     5.403     6.449     0.544     0.162     0.000  123575.2   667732.9
   11.500     5.378     6.420     0.544     0.162     0.000  122502.8   658784.1
   12.000     5.349     6.385     0.545     0.163     0.000  121659.9   650724.0
   12.500     5.317     6.350     0.545     0.163     0.000  120344.7   639818.7
   13.000     5.282     6.308     0.546     0.163     0.000  119382.7   630572.0
   13.500     5.245     6.268     0.546     0.163     0.000  117890.9   618351.0
   14.000     5.207     6.223     0.548     0.164     0.000  116802.8   608198.6
   14.500     5.168     6.180     0.548     0.164     0.000  115231.3   595533.4
   15.000     5.129     6.134     0.549     0.164     0.000  114023.9   584880.4
   15.500     5.091     6.091     0.549     0.164     0.000  112482.8   572698.1
   16.000     5.055     6.048     0.549     0.164     0.000  111185.8   562044.0
   16.500     5.021     6.008     0.549     0.164     0.000  109777.9   551153.7
   17.000     4.989     5.970     0.549     0.164     0.000  108438.7   540992.9
   17.500     4.960     5.936     0.549     0.164     0.000  107241.8   531950.6
   18.000     4.935     5.906     0.548     0.164     0.000  105912.7   522673.1
   18.500     4.913     5.877     0.548     0.164     0.000  104974.0   515756.2
   19.000     4.895     5.855     0.547     0.163     0.000  103703.0   507613.3
   19.500     4.880     5.834     0.547     0.163     0.000  103042.8   502878.9
   20.000     4.869     5.820     0.545     0.163     0.000  101865.4   495984.8
   20.500     4.861     5.805     0.545     0.163     0.000  101485.8   493362.8
   21.000     4.857     5.800     0.542     0.161     0.000  100425.0   487749.0
   21.500     4.856     5.791     0.542     0.161     0.000  100321.5   487144.4
   22.000     4.858     5.793     0.538     0.160     0.000   99397.4   482843.7
   22.500     4.863     5.791     0.538     0.160     0.000   99563.9   484184.8
   23.000     4.871     5.800     0.534     0.159     0.000   98799.8   481267.5
   23.500     4.883     5.804     0.534     0.159     0.000   99224.8   484470.4
   24.000     4.896     5.821     0.530     0.157     0.000   98641.0   482988.3
   24.500     4.913     5.830     0.530     0.157     0.000   99298.5   487880.4
   25.000     4.932     5.852     0.526     0.156     0.000   98899.4   487773.0
   25.500     4.953     5.867     0.526     0.156     0.000   99742.5   494028.4
   26.000     4.975     5.893     0.522     0.154     0.000   99504.7   495047.3
   26.500     4.999     5.910     0.522     0.154     0.000  100465.1   502175.6
   27.000     5.022     5.938     0.518     0.153     0.000  100335.7   503881.3
   27.500     5.046     5.956     0.518     0.153     0.000  101333.1   511300.5
   28.000     5.069     5.983     0.514     0.151     0.000  101246.7   513188.4
   28.500     5.091     6.000     0.514     0.151     0.000  102204.1   520341.3
   29.000     5.112     6.025     0.511     0.150     0.000  102115.1   522041.8
   29.500     5.132     6.040     0.511     0.150     0.000  102972.9   528506.6
   30.000     5.151     6.062     0.508     0.149     0.000  102875.1   529913.7
   30.500     5.169     6.075     0.508     0.149     0.000  103601.0   535470.4
   31.000     5.185     6.093     0.505     0.148     0.000  103528.1   536751.4
   31.500     5.200     6.105     0.505     0.148     0.000  104119.2   541392.2
   32.000     5.214     6.121     0.503     0.148     0.000  104125.2   542881.0
   32.500     5.227     6.133     0.503     0.148     0.000  104602.3   546777.9
   33.000     5.240     6.148     0.502     0.147     0.000  104735.3   548817.4
   33.500     5.253     6.160     0.502     0.147     0.000  105129.2   552207.1
   34.000     5.265     6.174     0.502     0.147     0.000  105408.6   554972.1
   34.500     5.277     6.188     0.502     0.147     0.000  105744.8   558025.0
   35.000     5.289     6.202     0.502     0.147     0.000  106145.4   561400.3
   35.500     5.300     6.216     0.502     0.147     0.000  106436.5   564165.5
   36.000     5.312     6.229     0.503     0.148     0.000  106895.2   567783.4
   36.500     5.322     6.243     0.503     0.148     0.000  107140.2   570201.1
   37.000     5.332     6.254     0.504     0.148     0.000  107578.4   573574.6
   37.500     5.340     6.266     0.504     0.148     0.000  107765.1   575494.5
   38.000     5.348     6.275     0.504     0.148     0.000  108111.1   578143.4
   38.500     5.354     6.283     0.504     0.148     0.000  108220.0   579360.3
   39.000     5.358     6.288     0.505     0.148     0.000  108416.4   580870.8
   39.500     5.360     6.292     0.505     0.148     0.000  108428.6   581186.7
   40.000     5.360     6.293     0.505     0.148     0.000  108433.0   581248.3
   40.500     5.359     6.291     0.505     0.148     0.000  108337.9   580553.9
   41.000     5.355     6.287     0.505     0.148     0.000  108123.6   579003.6
   41.500     5.349     6.280     0.505     0.148     0.000  107925.1   577336.9
   42.000     5.342     6.271     0.504     0.148     0.000  107487.5   574205.5
   42.500     5.333     6.259     0.504     0.148     0.000  107205.6   571760.1
   43.000     5.323     6.247     0.503     0.148     0.000  106565.8   567276.7
   43.500     5.312     6.232     0.503     0.148     0.000  106233.2   564357.0
   44.000     5.301     6.218     0.502     0.147     0.000  105441.4   558937.8
   44.500     5.289     6.201     0.502     0.147     0.000  105100.8   555921.3
   45.000     5.278     6.187     0.500     0.146     0.000  104237.1   550154.5
   45.500     5.267     6.170     0.500     0.146     0.000  103937.6   547461.3
   46.000     5.257     6.159     0.498     0.146     0.000  103103.6   542048.7
   46.500     5.249     6.144     0.498     0.146     0.000  102895.7   540107.5
   47.000     5.242     6.136     0.496     0.145     0.000  102200.8   535786.6
   47.500     5.238     6.127     0.496     0.145     0.000  102131.0   534997.6
   48.000     5.237     6.125     0.494     0.144     0.000  101673.8   532425.2
   48.500     5.238     6.122     0.494     0.144     0.000  101775.8   533085.7
   49.000     5.242     6.127     0.493     0.144     0.000  101625.1   532708.7
   49.500     5.249     6.132     0.493     0.144     0.000  101911.3   534938.9
   50.000     5.259     6.144     0.493     0.144     0.000  102089.8   536890.4
   50.500     5.272     6.157     0.493     0.144     0.000  102548.2   540600.8
   51.000     5.287     6.175     0.492     0.144     0.000  103024.7   544656.9
   51.500     5.304     6.194     0.492     0.144     0.000  103621.2   549573.1
   52.000     5.322     6.216     0.492     0.144     0.000  104309.8   555167.2
   52.500     5.342     6.239     0.492     0.144     0.000  104995.3   560893.8
   53.000     5.363     6.263     0.493     0.144     0.000  105768.0   567199.8
   53.500     5.384     6.288     0.493     0.144     0.000  106487.3   573289.2
   54.000     5.405     6.313     0.493     0.144     0.000  107202.8   579394.6
   54.500     5.425     6.337     0.493     0.144     0.000  107903.9   585424.6
   55.000     5.446     6.361     0.492     0.144     0.000  108452.3   590598.1
   55.500     5.465     6.383     0.492     0.144     0.000  109098.1   596264.7
   56.000     5.484     6.405     0.491     0.143     0.000  109440.5   600211.1
   56.500     5.503     6.424     0.491     0.143     0.000  110018.8   605413.2
   57.000     5.521     6.445     0.490     0.143     0.000  110197.0   608358.3
   57.500     5.538     6.463     0.490     0.143     0.000  110721.6   613210.3
   58.000     5.556     6.483     0.489     0.143     0.000  110833.3   615756.3
   58.500     5.573     6.500     0.489     0.143     0.000  111333.3   620494.3
   59.000     5.591     6.521     0.488     0.142     0.000  111482.8   623290.3
   59.500     5.609     6.539     0.488     0.142     0.000  111983.2   628094.0
   60.000     5.627     6.559     0.487     0.142     0.000  112233.0   631496.8
   60.500     5.644     6.578     0.487     0.142     0.000  112737.1   636333.8
   61.000     5.662     6.598     0.487     0.142     0.000  113081.4   640212.8
   61.500     5.678     6.616     0.487     0.142     0.000  113564.1   644787.3
   62.000     5.692     6.633     0.486     0.142     0.000  113935.4   648571.8
   62.500     5.705     6.647     0.486     0.142     0.000  114348.0   652384.4
   63.000     5.716     6.659     0.486     0.142     0.000  114649.8   655289.3
   63.500     5.723     6.667     0.486     0.142     0.000  114930.0   657743.2
   64.000     5.727     6.672     0.486     0.142     0.000  115076.4   659046.5
   64.500     5.727     6.672     0.486     0.142     0.000  115160.7   659568.6
   65.000     5.724     6.668     0.486     0.142     0.000  115103.3   658817.3
   65.500     5.716     6.658     0.486     0.142     0.000  114941.9   656994.5
   66.000     5.704     6.644     0.486     0.142     0.000  114675.0   654091.0
   66.500     5.688     6.626     0.486     0.142     0.000  114245.9   649803.8
   67.000     5.668     6.603     0.486     0.142     0.000  113796.5   644984.0
   67.500     5.645     6.576     0.486     0.142     0.000  113115.2   638481.3
   68.000     5.618     6.546     0.487     0.142     0.000  112522.9   632192.9
   68.500     5.590     6.514     0.487     0.142     0.000  111639.8   624043.6
   69.000     5.560     6.479     0.488     0.142     0.000  110940.9   616797.6
   69.500     5.528     6.445     0.488     0.142     0.000  109929.3   607741.7
   70.000     5.497     6.408     0.489     0.142     0.000  109150.0   599993.3
   70.500     5.465     6.374     0.489     0.142     0.000  108088.5   590753.2
   71.000     5.435     6.338     0.489     0.143     0.000  107248.4   582855.5
   71.500     5.405     6.305     0.489     0.143     0.000  106208.1   574020.8
   72.000     5.376     6.271     0.490     0.143     0.000  105332.3   566275.2
   72.500     5.349     6.241     0.490     0.143     0.000  104372.0   558285.0
   73.000     5.324     6.211     0.490     0.143     0.000  103502.9   551022.9
   73.500     5.301     6.184     0.490     0.143     0.000  102671.5   544214.6
   74.000     5.280     6.160     0.490     0.143     0.000  101876.8   537875.2
   74.500     5.261     6.138     0.490     0.143     0.000  101217.3   532542.0
   75.000     5.246     6.120     0.490     0.143     0.000  100586.1   527666.6
   75.500     5.234     6.105     0.490     0.143     0.000  100137.0   524078.9
   76.000     5.225     6.095     0.489     0.143     0.000   99767.1   521251.1
   76.500     5.219     6.088     0.489     0.143     0.000   99558.2   519626.0
   77.000     5.218     6.086     0.490     0.143     0.000   99534.6   519334.1
   77.500     5.220     6.089     0.490     0.143     0.000   99572.9   519722.5
   78.000     5.225     6.095     0.490     0.143     0.000   99943.4   522191.1
   78.500     5.233     6.107     0.490     0.143     0.000  100197.3   524348.9
   79.000     5.244     6.120     0.492     0.144     0.000  100957.1   529423.4
   79.500     5.257     6.138     0.492     0.144     0.000  101353.2   532769.2
   80.000     5.270     6.154     0.494     0.144     0.000  102444.6   539912.7
   80.500     5.284     6.175     0.494     0.144     0.000  102875.2   543585.7
   81.000     5.297     6.191     0.497     0.145     0.000  104201.3   551974.7
   81.500     5.309     6.212     0.497     0.145     0.000  104542.5   554974.6
   82.000     5.318     6.223     0.501     0.147     0.000  105990.0   563673.6
   82.500     5.325     6.241     0.501     0.147     0.000  106130.4   565094.7
   83.000     5.328     6.246     0.506     0.149     0.000  107602.1   573333.7
   83.500     5.328     6.258     0.506     0.149     0.000  107481.6   572691.6
   84.000     5.326     6.255     0.511     0.151     0.000  108919.9   580085.2
   84.500     5.320     6.262     0.511     0.151     0.000  108553.2   577489.7
   85.000     5.312     6.254     0.517     0.153     0.000  109936.4   584011.4
   85.500     5.302     6.257     0.517     0.153     0.000  109403.3   580061.6
   86.000     5.291     6.245     0.524     0.155     0.000  110737.8   585940.1
   86.500     5.279     6.246     0.524     0.155     0.000  110151.2   581481.6
   87.000     5.267     6.233     0.530     0.157     0.000  111464.1   587114.4
   87.500     5.255     6.235     0.530     0.157     0.000  110932.7   582993.4
   88.000     5.245     6.223     0.535     0.159     0.000  112232.6   588683.5
   88.500     5.236     6.227     0.535     0.159     0.000  111828.7   585502.9
   89.000     5.229     6.218     0.540     0.161     0.000  113091.4   591298.7
   89.500     5.222     6.225     0.540     0.161     0.000  112832.6   589245.1
   90.000     5.218     6.220     0.545     0.163     0.000  114007.6   594912.4
   90.500     5.215     6.228     0.545     0.163     0.000  113857.6   593735.2
   91.000     5.213     6.225     0.552     0.165     0.000  115951.8   604403.5
   91.500     5.209     6.241     0.552     0.165     0.000  115804.9   603277.7
   92.000     5.207     6.238     0.559     0.168     0.000  117858.3   613653.7
   92.500     5.202     6.252     0.559     0.168     0.000  117639.7   611988.4
   93.000     5.197     6.246     0.566     0.170     0.000  119584.9   621535.2
   93.500     5.190     6.257     0.566     0.170     0.000  119243.8   618922.5
   94.000     5.183     6.248     0.572     0.173     0.000  121041.8   627325.2
   94.500     5.173     6.255     0.572     0.173     0.000  120560.2   623617.7
   95.000     5.162     6.242     0.579     0.176     0.000  122203.9   630822.8
   95.500     5.149     6.246     0.579     0.176     0.000  121594.0   626133.5
   96.000     5.137     6.231     0.584     0.178     0.000  122656.7   630039.4
   96.500     5.123     6.229     0.584     0.178     0.000  121968.7   624813.1
   97.000     5.109     6.213     0.588     0.179     0.000  122501.4   625907.5
   97.500     5.096     6.207     0.588     0.179     0.000  121783.8   620591.5
   98.000     5.083     6.192     0.591     0.180     0.000  121887.2   619571.3
   98.500     5.071     6.184     0.591     0.180     0.000  121164.3   614376.2
   99.000     5.059     6.169     0.593     0.181     0.000  121119.5   612703.2
   99.500     5.047     6.161     0.593     0.181     0.000  120386.5   607537.6
  100.000     5.035     6.146     0.595     0.182     0.000  120549.2   606925.0
  100.500     5.022     6.139     0.595     0.182     0.000  119798.2   601646.5
  101.000     5.010     6.124     0.597     0.183     0.000  119650.0   599435.6
  101.500     4.998     6.115     0.597     0.183     0.000  118924.6   594331.6
  102.000     4.986     6.100     0.597     0.183     0.000  118309.3   589872.5
  102.500     4.975     6.088     0.597     0.183     0.000  117679.9   585457.5
  103.000     4.965     6.076     0.598     0.183     0.000  117433.5   583089.8
  103.500     4.957     6.068     0.598     0.183     0.000  116935.8   579605.6
  104.000     4.949     6.059     0.598     0.183     0.000  116352.1   575881.2
  104.500     4.944     6.051     0.598     0.183     0.000  116046.8   573750.4
  105.000     4.941     6.047     0.599     0.183     0.000  116045.3   573325.5
  105.500     4.939     6.046     0.599     0.183     0.000  115948.5   572621.8
  106.000     4.939     6.046     0.597     0.183     0.000  115596.9   570888.2
  106.500     4.941     6.046     0.597     0.183     0.000  115764.8   572003.1
  107.000     4.946     6.052     0.595     0.182     0.000  115246.7   569987.0
  107.500     4.954     6.053     0.595     0.182     0.000  115726.2   573272.4
  108.000     4.964     6.066     0.592     0.180     0.000  115431.2   573022.1
  108.500     4.978     6.075     0.592     0.180     0.000  116249.0   578720.8
  109.000     4.995     6.095     0.588     0.179     0.000  115971.5   579310.3
  109.500     5.016     6.109     0.588     0.179     0.000  117142.2   587628.1
  110.000     5.040     6.138     0.583     0.177     0.000  116959.4   589516.0
  110.500     5.068     6.159     0.583     0.177     0.000  118459.9   600398.6
  111.000     5.099     6.195     0.577     0.175     0.000  118334.7   603364.0
  111.500     5.133     6.221     0.577     0.175     0.000  120099.5   616429.9
  112.000     5.168     6.263     0.572     0.173     0.000  120165.0   621004.5
  112.500     5.206     6.293     0.572     0.173     0.000  122091.2   635547.8
  113.000     5.243     6.338     0.566     0.171     0.000  122229.6   640887.1
  113.500     5.282     6.369     0.566     0.171     0.000  124203.3   656070.9
  114.000     5.320     6.415     0.561     0.169     0.000  124257.7   661084.9
  114.500     5.359     6.445     0.561     0.169     0.000  126174.3   676107.2
  115.000     5.395     6.489     0.556     0.167     0.000  126278.2   681276.5
  115.500     5.431     6.517     0.556     0.167     0.000  128052.1   695447.3
  116.000     5.465     6.558     0.554     0.166     0.000  129091.6   705443.8
  116.500     5.497     6.591     0.554     0.166     0.000  130648.2   718117.1
  117.000     5.526     6.626     0.549     0.164     0.000  130209.9   719558.8
  117.500     5.555     6.645     0.549     0.164     0.000  131566.0   730839.8
  118.000     5.581     6.677     0.544     0.162     0.000  131156.2   732045.6
  118.500     5.607     6.694     0.544     0.162     0.000  132319.9   741950.5
  119.000     5.631     6.722     0.539     0.161     0.000  131717.1   741707.7
  119.500     5.654     6.737     0.539     0.161     0.000  132722.4   750469.8
  120.000     5.676     6.762     0.536     0.160     0.000  132557.3   752417.5
  120.500     5.697     6.779     0.536     0.160     0.000  133428.1   760176.5
  121.000     5.717     6.802     0.531     0.157     0.000  132155.0   755529.1
  121.500     5.737     6.809     0.531     0.157     0.000  132953.0   762751.2
  122.000     5.756     6.831     0.527     0.156     0.000  132332.9   761655.7
