    Time      Ur        Uinf      Ct_adm    a        Yaw(deg)  Thrust     Power  
    0.000     6.767     6.767     0.507     0.149     0.000  180752.2  1223064.3
    0.500     6.793     7.982     0.507     0.149     0.000  182180.3  1237547.3
    1.000     6.817     8.011     0.515     0.152     0.000  187437.0  1277848.4
    1.500     6.837     8.059     0.515     0.152     0.000  188531.4  1289041.5
    2.000     6.855     8.080     0.522     0.154     0.000  193475.4  1326230.1
    2.500     6.868     8.121     0.522     0.154     0.000  194211.6  1333807.9
    3.000     6.879     8.135     0.529     0.157     0.000  198863.8  1368045.8
    3.500     6.887     8.170     0.529     0.157     0.000  199324.3  1372822.9
    4.000     6.895     8.179     0.537     0.160     0.000  203781.8  1405090.7
    4.500     6.900     8.211     0.537     0.160     0.000  204082.0  1408248.0
    5.000     6.906     8.218     0.537     0.160     0.000  204630.3  1413220.5
    5.500     6.912     8.227     0.537     0.160     0.000  204979.3  1416914.0
    6.000     6.919     8.235     0.536     0.159     0.000  204623.1  1415835.5
    6.500     6.927     8.239     0.536     0.159     0.000  205038.2  1420236.1
    7.000     6.934     8.248     0.535     0.159     0.000  205185.7  1422760.7
    7.500     6.941     8.255     0.535     0.159     0.000  205572.0  1426866.6
    8.000     6.947     8.262     0.535     0.159     0.000  205667.1  1428761.1
    8.500     6.952     8.266     0.535     0.159     0.000  205938.6  1431648.8
    9.000     6.955     8.270     0.535     0.159     0.000  205982.2  1432638.4
    9.500     6.957     8.271     0.535     0.159     0.000  206083.8  1433709.0
   10.000     6.957     8.271     0.535     0.159     0.000  206164.6  1434290.9
   10.500     6.956     8.270     0.535     0.159     0.000  206088.7  1433452.8
   11.000     6.953     8.267     0.535     0.159     0.000  206328.8  1434533.5
   11.500     6.948     8.264     0.535     0.159     0.000  206108.2  1432138.8
   12.000     6.944     8.258     0.537     0.160     0.000  206583.0  1434419.0
   12.500     6.938     8.256     0.537     0.160     0.000  206273.1  1431068.7
   13.000     6.932     8.249     0.539     0.160     0.000  206965.0  1434650.3
   13.500     6.926     8.248     0.539     0.160     0.000  206624.9  1430992.8
   14.000     6.920     8.241     0.541     0.161     0.000  207425.7  1435336.2
   14.500     6.914     8.241     0.541     0.161     0.000  207107.1  1431936.2
   15.000     6.909     8.236     0.542     0.162     0.000  207854.4  1436089.2
   15.500     6.905     8.237     0.542     0.162     0.000  207597.8  1433384.5
   16.000     6.901     8.233     0.544     0.162     0.000  208124.7  1436318.1
   16.500     6.899     8.234     0.544     0.162     0.000  207961.5  1434633.9
   17.000     6.897     8.232     0.544     0.162     0.000  208135.5  1435519.0
   17.500     6.897     8.234     0.544     0.162     0.000  208089.9  1435092.5
   18.000     6.897     8.234     0.544     0.162     0.000  207837.8  1433472.2
   18.500     6.899     8.235     0.544     0.162     0.000  207925.7  1434446.2
   19.000     6.902     8.238     0.542     0.162     0.000  207240.0  1430275.7
   19.500     6.906     8.237     0.542     0.162     0.000  207464.6  1432659.8
   20.000     6.910     8.243     0.540     0.161     0.000  206385.8  1426173.8
   20.500     6.916     8.241     0.540     0.161     0.000  206734.4  1429819.9
   21.000     6.922     8.249     0.537     0.160     0.000  205325.1  1421362.2
   21.500     6.930     8.246     0.537     0.160     0.000  205771.8  1425997.5
   22.000     6.937     8.255     0.533     0.158     0.000  204104.8  1415962.5
   22.500     6.946     8.252     0.533     0.158     0.000  204619.5  1421280.6
   23.000     6.954     8.262     0.529     0.157     0.000  202779.7  1410166.9
   23.500     6.963     8.258     0.529     0.157     0.000  203338.7  1415938.6
   24.000     6.972     8.268     0.524     0.155     0.000  201426.3  1404400.3
   24.500     6.982     8.264     0.524     0.155     0.000  202020.0  1410543.5
   25.000     6.992     8.276     0.520     0.154     0.000  200144.3  1399354.5
   25.500     7.002     8.273     0.520     0.154     0.000  200776.3  1405925.4
   26.000     7.013     8.285     0.516     0.152     0.000  199037.9  1395834.6
   26.500     7.025     8.284     0.516     0.152     0.000  199716.5  1402934.7
   27.000     7.036     8.298     0.512     0.151     0.000  198185.8  1394472.2
   27.500     7.049     8.299     0.512     0.151     0.000  198911.0  1402108.3
   28.000     7.061     8.314     0.508     0.149     0.000  197617.4  1395460.7
   28.500     7.075     8.317     0.508     0.149     0.000  198370.2  1403433.6
   29.000     7.088     8.332     0.505     0.148     0.000  197310.7  1398481.3
   29.500     7.101     8.336     0.505     0.148     0.000  198052.2  1406367.8
   30.000     7.113     8.351     0.502     0.147     0.000  197209.4  1402824.1
   30.500     7.126     8.356     0.502     0.147     0.000  197889.2  1410073.3
   31.000     7.136     8.368     0.500     0.146     0.000  197246.4  1407641.3
   31.500     7.147     8.373     0.500     0.146     0.000  197817.8  1413739.3
   32.000     7.155     8.383     0.498     0.146     0.000  197361.4  1412189.0
   32.500     7.163     8.386     0.498     0.146     0.000  197795.3  1416812.8
   33.000     7.169     8.393     0.497     0.145     0.000  197508.3  1415971.1
   33.500     7.174     8.395     0.497     0.145     0.000  197799.0  1419061.1
   34.000     7.178     8.399     0.496     0.145     0.000  197647.6  1418718.8
   34.500     7.181     8.401     0.496     0.145     0.000  197811.4  1420455.5
   35.000     7.183     8.403     0.496     0.145     0.000  197741.2  1420317.6
   35.500     7.184     8.403     0.496     0.145     0.000  197808.4  1421029.9
   36.000     7.184     8.404     0.496     0.145     0.000  197760.0  1420786.6
   36.500     7.184     8.403     0.496     0.145     0.000  197764.5  1420837.4
   37.000     7.184     8.403     0.496     0.145     0.000  197688.5  1420242.0
   37.500     7.184     8.402     0.496     0.145     0.000  197659.8  1419946.6
   38.000     7.183     8.401     0.496     0.145     0.000  197529.1  1418890.4
   38.500     7.183     8.400     0.496     0.145     0.000  197491.1  1418500.5
   39.000     7.182     8.399     0.495     0.145     0.000  197304.6  1417050.5
   39.500     7.182     8.398     0.495     0.145     0.000  197280.1  1416807.9
   40.000     7.182     8.398     0.495     0.145     0.000  197056.5  1415183.1
   40.500     7.182     8.397     0.495     0.145     0.000  197074.4  1415395.1
   41.000     7.183     8.398     0.495     0.145     0.000  196838.8  1413892.3
   41.500     7.185     8.399     0.495     0.145     0.000  196936.7  1414959.4
   42.000     7.188     8.402     0.494     0.144     0.000  196709.4  1413862.7
   42.500     7.192     8.404     0.494     0.144     0.000  196926.9  1416211.2
   43.000     7.197     8.410     0.493     0.144     0.000  196716.7  1415708.7
   43.500     7.203     8.415     0.493     0.144     0.000  197080.4  1419630.4
   44.000     7.211     8.424     0.492     0.144     0.000  196888.1  1419774.6
   44.500     7.220     8.431     0.492     0.144     0.000  197393.2  1425227.2
   45.000     7.230     8.443     0.491     0.143     0.000  197216.9  1425918.4
   45.500     7.241     8.451     0.491     0.143     0.000  197815.2  1432391.9
   46.000     7.252     8.463     0.489     0.143     0.000  197649.1  1433342.9
   46.500     7.263     8.472     0.489     0.143     0.000  198251.3  1439877.3
   47.000     7.273     8.483     0.488     0.142     0.000  198078.3  1440598.2
   47.500     7.282     8.489     0.488     0.142     0.000  198574.8  1445994.9
   48.000     7.289     8.498     0.487     0.142     0.000  198363.3  1445863.3
   48.500     7.294     8.500     0.487     0.142     0.000  198655.1  1449028.5
   49.000     7.297     8.503     0.486     0.142     0.000  198369.2  1447483.7
   49.500     7.297     8.501     0.486     0.142     0.000  198397.4  1447764.7
   50.000     7.295     8.498     0.486     0.141     0.000  198014.2  1444527.6
   50.500     7.291     8.491     0.486     0.141     0.000  197775.3  1441891.2
   51.000     7.284     8.484     0.485     0.141     0.000  197290.2  1437026.3
   51.500     7.275     8.473     0.485     0.141     0.000  196832.0  1432010.5
   52.000     7.265     8.461     0.485     0.141     0.000  196240.3  1425741.7
   52.500     7.254     8.448     0.485     0.141     0.000  195641.9  1419233.3
   53.000     7.243     8.434     0.485     0.141     0.000  194916.8  1411690.8
   53.500     7.231     8.420     0.485     0.141     0.000  194265.9  1404657.8
   54.000     7.219     8.406     0.485     0.141     0.000  193363.3  1395832.4
   54.500     7.207     8.391     0.485     0.141     0.000  192737.3  1389115.0
   55.000     7.196     8.379     0.484     0.141     0.000  191634.2  1379082.4
   55.500     7.187     8.364     0.484     0.141     0.000  191090.4  1373285.6
   56.000     7.178     8.353     0.482     0.140     0.000  189823.0  1362458.7
   56.500     7.170     8.340     0.482     0.140     0.000  189396.6  1357937.5
   57.000     7.163     8.332     0.481     0.140     0.000  188062.2  1347088.2
   57.500     7.158     8.320     0.481     0.140     0.000  187769.4  1343990.5
   58.000     7.153     8.315     0.479     0.139     0.000  186492.8  1334023.2
   58.500     7.150     8.305     0.479     0.139     0.000  186335.0  1332343.8
   59.000     7.148     8.302     0.477     0.138     0.000  185222.8  1323993.2
   59.500     7.147     8.295     0.477     0.138     0.000  185189.2  1323611.2
   60.000     7.147     8.295     0.475     0.138     0.000  184301.2  1317250.2
   60.500     7.148     8.291     0.475     0.138     0.000  184368.5  1317930.1
   61.000     7.150     8.293     0.474     0.137     0.000  183711.2  1313518.5
   61.500     7.152     8.291     0.474     0.137     0.000  183843.5  1314900.2
   62.000     7.155     8.294     0.473     0.137     0.000  183386.2  1312095.7
   62.500     7.158     8.293     0.473     0.137     0.000  183536.8  1313703.7
   63.000     7.160     8.296     0.472     0.137     0.000  183239.9  1312065.8
   63.500     7.163     8.297     0.472     0.137     0.000  183359.0  1313376.3
   64.000     7.165     8.299     0.471     0.136     0.000  183203.0  1312602.6
   64.500     7.166     8.299     0.471     0.136     0.000  183249.1  1313164.5
   65.000     7.166     8.299     0.471     0.136     0.000  183249.7  1313244.5
   65.500     7.166     8.299     0.471     0.136     0.000  183201.0  1312810.8
   66.000     7.165     8.297     0.472     0.137     0.000  183402.6  1314018.5
   66.500     7.162     8.297     0.472     0.137     0.000  183263.5  1312620.5
   67.000     7.160     8.293     0.473     0.137     0.000  183708.1  1315302.4
   67.500     7.156     8.293     0.473     0.137     0.000  183506.9  1313230.3
   68.000     7.153     8.289     0.475     0.138     0.000  184193.1  1317491.4
   68.500     7.149     8.290     0.475     0.138     0.000  183973.9  1315204.5
   69.000     7.145     8.286     0.477     0.138     0.000  184835.9  1320723.3
   69.500     7.142     8.288     0.477     0.138     0.000  184647.5  1318733.4
   70.000     7.139     8.285     0.479     0.139     0.000  185568.2  1324820.7
   70.500     7.137     8.289     0.479     0.139     0.000  185454.4  1323587.0
   71.000     7.136     8.288     0.480     0.140     0.000  186306.7  1329459.3
   71.500     7.135     8.293     0.480     0.140     0.000  186297.9  1329306.3
   72.000     7.136     8.294     0.482     0.140     0.000  186991.8  1334397.0
   72.500     7.138     8.300     0.482     0.140     0.000  187098.4  1335446.5
   73.000     7.140     8.303     0.482     0.140     0.000  187606.5  1339570.4
   73.500     7.144     8.309     0.482     0.140     0.000  187815.5  1341703.8
   74.000     7.148     8.314     0.482     0.140     0.000  188171.6  1345038.5
   74.500     7.153     8.320     0.482     0.140     0.000  188448.0  1347902.7
   75.000     7.158     8.326     0.482     0.140     0.000  188722.8  1350820.6
   75.500     7.163     8.332     0.482     0.140     0.000  189016.5  1353892.4
   76.000     7.168     8.337     0.482     0.140     0.000  189291.1  1356797.1
   76.500     7.172     8.343     0.482     0.140     0.000  189547.6  1359496.8
   77.000     7.176     8.347     0.483     0.140     0.000  189895.2  1362734.0
   77.500     7.179     8.352     0.483     0.140     0.000  190066.8  1364545.9
   78.000     7.181     8.354     0.483     0.141     0.000  190547.4  1368401.5
   78.500     7.182     8.357     0.483     0.141     0.000  190599.3  1368945.0
   79.000     7.182     8.357     0.485     0.141     0.000  191263.3  1373679.6
   79.500     7.180     8.359     0.485     0.141     0.000  191173.2  1372709.1
   80.000     7.178     8.356     0.486     0.142     0.000  192066.2  1378582.9
   80.500     7.173     8.357     0.486     0.142     0.000  191820.3  1375944.1
   81.000     7.167     8.351     0.489     0.143     0.000  192978.2  1383161.4
   81.500     7.160     8.351     0.489     0.143     0.000  192567.6  1378755.0
   82.000     7.151     8.341     0.493     0.144     0.000  194009.8  1387412.8
   82.500     7.141     8.340     0.493     0.144     0.000  193430.4  1381200.6
   83.000     7.129     8.326     0.497     0.145     0.000  195151.0  1391237.9
   83.500     7.115     8.325     0.497     0.145     0.000  194406.7  1383275.3
   84.000     7.101     8.308     0.502     0.147     0.000  196361.9  1394397.2
   84.500     7.085     8.306     0.502     0.147     0.000  195467.4  1384867.0
   85.000     7.068     8.287     0.507     0.149     0.000  197567.2  1396498.3
   85.500     7.050     8.284     0.507     0.149     0.000  196550.5  1385724.9
   86.000     7.032     8.263     0.513     0.151     0.000  198677.9  1397149.9
   86.500     7.013     8.260     0.513     0.151     0.000  197579.7  1385586.2
   87.000     6.994     8.238     0.518     0.153     0.000  199621.9  1396166.7
   87.500     6.974     8.234     0.518     0.153     0.000  198492.6  1384350.0
   88.000     6.956     8.212     0.524     0.155     0.000  200360.0  1393641.2
   88.500     6.937     8.208     0.524     0.155     0.000  199253.4  1382129.9
   89.000     6.919     8.187     0.529     0.157     0.000  200890.2  1389930.9
   89.500     6.901     8.183     0.529     0.157     0.000  199856.2  1379232.9
   90.000     6.885     8.164     0.533     0.158     0.000  201254.4  1385654.0
   90.500     6.869     8.161     0.533     0.158     0.000  200333.0  1376162.9
   91.000     6.855     8.144     0.540     0.161     0.000  203500.6  1395095.8
   91.500     6.841     8.153     0.540     0.161     0.000  202641.0  1386275.8
   92.000     6.829     8.138     0.547     0.164     0.000  205849.9  1405660.1
   92.500     6.816     8.148     0.547     0.164     0.000  205073.9  1397725.8
   93.000     6.805     8.135     0.554     0.166     0.000  208349.6  1417817.0
   93.500     6.794     8.148     0.554     0.166     0.000  207679.5  1410986.5
   94.000     6.785     8.137     0.561     0.169     0.000  211049.2  1432055.5
   94.500     6.777     8.152     0.561     0.169     0.000  210507.9  1426557.6
   95.000     6.771     8.145     0.568     0.171     0.000  214000.1  1448889.9
   95.500     6.764     8.163     0.568     0.171     0.000  213609.9  1444944.0
   96.000     6.761     8.159     0.572     0.173     0.000  215902.6  1459683.4
   96.500     6.758     8.172     0.572     0.173     0.000  215730.5  1457961.0
   97.000     6.758     8.172     0.575     0.174     0.000  217545.6  1470195.8
   97.500     6.759     8.185     0.575     0.174     0.000  217604.0  1470817.8
   98.000     6.762     8.189     0.578     0.175     0.000  219082.9  1481507.5
   98.500     6.767     8.202     0.578     0.175     0.000  219347.8  1484234.2
   99.000     6.772     8.210     0.579     0.176     0.000  220719.2  1494805.3
   99.500     6.779     8.224     0.579     0.176     0.000  221129.1  1499020.7
  100.000     6.786     8.233     0.582     0.177     0.000  222977.0  1513206.9
  100.500     6.794     8.251     0.582     0.177     0.000  223431.5  1517899.7
  101.000     6.801     8.260     0.583     0.177     0.000  224553.2  1527202.4
  101.500     6.808     8.273     0.583     0.177     0.000  224999.7  1531835.5
  102.000     6.815     8.281     0.582     0.177     0.000  225128.3  1534251.1
  102.500     6.822     8.287     0.582     0.177     0.000  225538.9  1538526.5
  103.000     6.827     8.294     0.583     0.177     0.000  226253.4  1544736.6
  103.500     6.832     8.302     0.583     0.177     0.000  226563.7  1547980.5
  104.000     6.837     8.308     0.582     0.177     0.000  226150.1  1546107.2
  104.500     6.841     8.308     0.582     0.177     0.000  226396.3  1548670.4
  105.000     6.844     8.312     0.582     0.177     0.000  226839.8  1552433.1
  105.500     6.846     8.316     0.582     0.177     0.000  227004.7  1554132.5
  106.000     6.848     8.319     0.581     0.176     0.000  226257.2  1549496.3
  106.500     6.851     8.316     0.581     0.176     0.000  226426.5  1551208.1
  107.000     6.853     8.319     0.578     0.175     0.000  224981.0  1541837.9
  107.500     6.857     8.313     0.578     0.175     0.000  225222.0  1544260.1
  108.000     6.860     8.317     0.575     0.174     0.000  223856.5  1535704.8
  108.500     6.865     8.313     0.575     0.174     0.000  224196.4  1539130.3
  109.000     6.870     8.319     0.572     0.173     0.000  222454.7  1528335.3
  109.500     6.877     8.314     0.572     0.173     0.000  222922.6  1533080.7
  110.000     6.884     8.322     0.568     0.171     0.000  220991.5  1521389.8
  110.500     6.893     8.317     0.568     0.171     0.000  221584.4  1527444.5
  111.000     6.902     8.328     0.563     0.169     0.000  219411.0  1514436.2
  111.500     6.913     8.323     0.563     0.169     0.000  220100.4  1521524.4
  112.000     6.923     8.336     0.558     0.168     0.000  218041.4  1509521.4
  112.500     6.934     8.332     0.558     0.168     0.000  218764.1  1516995.0
  113.000     6.945     8.344     0.554     0.166     0.000  216686.8  1504845.3
  113.500     6.956     8.340     0.554     0.166     0.000  217377.1  1512021.3
  114.000     6.965     8.351     0.549     0.164     0.000  215137.1  1498503.5
  114.500     6.975     8.345     0.549     0.164     0.000  215746.6  1504867.3
  115.000     6.983     8.355     0.544     0.163     0.000  213689.2  1492265.4
  115.500     6.991     8.348     0.544     0.163     0.000  214187.1  1497484.2
  116.000     6.998     8.356     0.543     0.162     0.000  213887.9  1496795.7
  116.500     7.004     8.358     0.543     0.162     0.000  214229.9  1500396.0
  117.000     7.008     8.364     0.538     0.160     0.000  211581.3  1482810.8
  117.500     7.014     8.352     0.538     0.160     0.000  211913.5  1486319.0
  118.000     7.019     8.358     0.534     0.159     0.000  209677.4  1471695.2
  118.500     7.025     8.350     0.534     0.159     0.000  210054.8  1475687.2
  119.000     7.032     8.357     0.529     0.157     0.000  207782.1  1461056.6
  119.500     7.040     8.350     0.529     0.157     0.000  208269.2  1466211.5
  120.000     7.049     8.361     0.526     0.156     0.000  206983.4  1458959.6
  120.500     7.059     8.362     0.526     0.156     0.000  207586.9  1465350.4
  121.000     7.070     8.374     0.520     0.154     0.000  204745.2  1447506.3
  121.500     7.083     8.369     0.520     0.154     0.000  205524.4  1455769.1
  122.000     7.097     8.385     0.516     0.152     0.000  203998.6  1447754.6
